 # Energy of SiRi back detector + energy of front detector
 # Back detector 0 front strip 0 (140 degrees)
 # 28Si(p,p') calibration data, OCL exp. March 2019
 # Cecilie, April 7, 2020
 # E(keV)+DE (keV)     Counts
    0.000    0.000
   40.000    0.000
   80.000    0.000
  120.000    0.000
  160.000    0.000
  200.000    0.000
  240.000    0.000
  280.000    0.000
  320.000    0.000
  360.000    0.000
  400.000    0.000
  440.000    0.000
  480.000    0.000
  520.000    0.000
  560.000    0.000
  600.000    0.000
  640.000    0.000
  680.000    0.000
  720.000    0.000
  760.000    0.000
  800.000    0.000
  840.000    0.000
  880.000    0.000
  920.000    0.000
  960.000    0.000
 1000.000    0.000
 1040.000    0.000
 1080.000    0.000
 1120.000    0.000
 1160.000    0.000
 1200.000    0.000
 1240.000    0.000
 1280.000    0.000
 1320.000    0.000
 1360.000    0.000
 1400.000    0.000
 1440.000    0.000
 1480.000    0.000
 1520.000    0.000
 1560.000    0.000
 1600.000    0.000
 1640.000    0.000
 1680.000    0.000
 1720.000    0.000
 1760.000    0.000
 1800.000    0.000
 1840.000    1.000
 1880.000    2.000
 1920.000    0.000
 1960.000    1.000
 2000.000    0.000
 2040.000    0.000
 2080.000    1.000
 2120.000    0.000
 2160.000    0.000
 2200.000    1.000
 2240.000    0.000
 2280.000    3.000
 2320.000    7.000
 2360.000    2.000
 2400.000    5.000
 2440.000    3.000
 2480.000    4.000
 2520.000    4.000
 2560.000    1.000
 2600.000    8.000
 2640.000    7.000
 2680.000    5.000
 2720.000    4.000
 2760.000    7.000
 2800.000    7.000
 2840.000    3.000
 2880.000   11.000
 2920.000    9.000
 2960.000    8.000
 3000.000   12.000
 3040.000   13.000
 3080.000    7.000
 3120.000   11.000
 3160.000    8.000
 3200.000    9.000
 3240.000    5.000
 3280.000   14.000
 3320.000   10.000
 3360.000    6.000
 3400.000   14.000
 3440.000   14.000
 3480.000   11.000
 3520.000   16.000
 3560.000   16.000
 3600.000   22.000
 3640.000   11.000
 3680.000   29.000
 3720.000   30.000
 3760.000   16.000
 3800.000   25.000
 3840.000   32.000
 3880.000   18.000
 3920.000   25.000
 3960.000   35.000
 4000.000   25.000
 4040.000   35.000
 4080.000   35.000
 4120.000   36.000
 4160.000   24.000
 4200.000   52.000
 4240.000   48.000
 4280.000   56.000
 4320.000   77.000
 4360.000  121.000
 4400.000  227.000
 4440.000  307.000
 4480.000  409.000
 4520.000  456.000
 4560.000  485.000
 4600.000  524.000
 4640.000  500.000
 4680.000  529.000
 4720.000  533.000
 4760.000  684.000
 4800.000  746.000
 4840.000  792.000
 4880.000  887.000
 4920.000  905.000
 4960.000  989.000
 5000.000  986.000
 5040.000  962.000
 5080.000 1090.000
 5120.000 1002.000
 5160.000 1197.000
 5200.000 1256.000
 5240.000 1342.000
 5280.000 1548.000
 5320.000 1841.000
 5360.000 1961.000
 5400.000 2018.000
 5440.000 2158.000
 5480.000 2293.000
 5520.000 2189.000
 5560.000 2220.000
 5600.000 2193.000
 5640.000 2184.000
 5680.000 2243.000
 5720.000 2106.000
 5760.000 2045.000
 5800.000 1971.000
 5840.000 1820.000
 5880.000 1517.000
 5920.000 1444.000
 5960.000 1387.000
 6000.000 1383.000
 6040.000 1505.000
 6080.000 1578.000
 6120.000 1670.000
 6160.000 1610.000
 6200.000 1583.000
 6240.000 1476.000
 6280.000 1284.000
 6320.000 1210.000
 6360.000 1068.000
 6400.000 1046.000
 6440.000 1071.000
 6480.000 1355.000
 6520.000 1613.000
 6560.000 1896.000
 6600.000 2056.000
 6640.000 2151.000
 6680.000 2043.000
 6720.000 1815.000
 6760.000 1471.000
 6800.000 1180.000
 6840.000 1011.000
 6880.000 1030.000
 6920.000 1107.000
 6960.000 1361.000
 7000.000 1788.000
 7040.000 2459.000
 7080.000 2916.000
 7120.000 3251.000
 7160.000 3278.000
 7200.000 3006.000
 7240.000 2570.000
 7280.000 1908.000
 7320.000 1329.000
 7360.000  985.000
 7400.000  754.000
 7440.000  680.000
 7480.000  640.000
 7520.000  577.000
 7560.000  609.000
 7600.000  732.000
 7640.000  878.000
 7680.000  990.000
 7720.000  991.000
 7760.000 1062.000
 7800.000 1012.000
 7840.000  824.000
 7880.000  642.000
 7920.000  470.000
 7960.000  352.000
 8000.000  254.000
 8040.000  203.000
 8080.000  176.000
 8120.000  166.000
 8160.000  175.000
 8200.000  143.000
 8240.000  142.000
 8280.000  156.000
 8320.000  134.000
 8360.000  136.000
 8400.000  140.000
 8440.000  143.000
 8480.000  164.000
 8520.000  175.000
 8560.000  160.000
 8600.000  172.000
 8640.000  212.000
 8680.000  239.000
 8720.000  259.000
 8760.000  240.000
 8800.000  306.000
 8840.000  322.000
 8880.000  423.000
 8920.000  508.000
 8960.000  552.000
 9000.000  599.000
 9040.000  621.000
 9080.000  741.000
 9120.000  725.000
 9160.000  840.000
 9200.000 1098.000
 9240.000 1446.000
 9280.000 1704.000
 9320.000 1821.000
 9360.000 1757.000
 9400.000 1477.000
 9440.000 1087.000
 9480.000  703.000
 9520.000  411.000
 9560.000  287.000
 9600.000  215.000
 9640.000  174.000
 9680.000  170.000
 9720.000  143.000
 9760.000  148.000
 9800.000  128.000
 9840.000  110.000
 9880.000  117.000
 9920.000  116.000
 9960.000   86.000
10000.000   82.000
10040.000   88.000
10080.000   76.000
10120.000  100.000
10160.000  101.000
10200.000   92.000
10240.000   93.000
10280.000  135.000
10320.000  133.000
10360.000  118.000
10400.000  150.000
10440.000  136.000
10480.000  124.000
10520.000  125.000
10560.000  125.000
10600.000  115.000
10640.000  108.000
10680.000  112.000
10720.000  126.000
10760.000  146.000
10800.000  152.000
10840.000  143.000
10880.000  128.000
10920.000  138.000
10960.000  144.000
11000.000  132.000
11040.000  141.000
11080.000  159.000
11120.000  160.000
11160.000  171.000
11200.000  192.000
11240.000  182.000
11280.000  218.000
11320.000  232.000
11360.000  261.000
11400.000  307.000
11440.000  349.000
11480.000  392.000
11520.000  393.000
11560.000  422.000
11600.000  496.000
11640.000  571.000
11680.000  655.000
11720.000  842.000
11760.000 1052.000
11800.000 1381.000
11840.000 1958.000
11880.000 2951.000
11920.000 4299.000
11960.000 5725.000
12000.000 6765.000
12040.000 7036.000
12080.000 6178.000
12120.000 4521.000
12160.000 2901.000
12200.000 1681.000
12240.000  996.000
12280.000  719.000
12320.000  503.000
12360.000  372.000
12400.000  335.000
12440.000  339.000
12480.000  316.000
12520.000  312.000
12560.000  297.000
12600.000  294.000
12640.000  223.000
12680.000  197.000
12720.000  184.000
12760.000  169.000
12800.000  176.000
12840.000  196.000
12880.000  246.000
12920.000  192.000
12960.000  262.000
13000.000  279.000
13040.000  288.000
13080.000  372.000
13120.000  372.000
13160.000  413.000
13200.000  511.000
13240.000  536.000
13280.000  566.000
13320.000  654.000
13360.000  784.000
13400.000  913.000
13440.000 1302.000
13480.000 1841.000
13520.000 2570.000
13560.000 3980.000
13600.000 6013.000
13640.000 8980.000
13680.00011168.000
13720.00012422.000
13760.00011359.000
13800.000 8542.000
13840.000 5509.000
13880.000 3193.000
13920.000 1686.000
13960.000 1161.000
14000.000  744.000
14040.000  588.000
14080.000  482.000
14120.000  410.000
14160.000  379.000
14200.000  293.000
14240.000  246.000
14280.000  213.000
14320.000  164.000
14360.000  130.000
14400.000   88.000
14440.000   88.000
14480.000   73.000
14520.000   72.000
14560.000   67.000
14600.000   45.000
14640.000   45.000
14680.000   63.000
14720.000   57.000
14760.000   37.000
14800.000   54.000
14840.000   32.000
14880.000   35.000
14920.000   35.000
14960.000   41.000
15000.000   41.000
15040.000   44.000
15080.000   37.000
15120.000   54.000
15160.000   41.000
15200.000   33.000
15240.000   32.000
15280.000   39.000
15320.000   37.000
15360.000   50.000
15400.000   32.000
15440.000   30.000
15480.000   41.000
15520.000   49.000
15560.000   35.000
15600.000   47.000
15640.000   48.000
15680.000   43.000
15720.000   37.000
15760.000   46.000
15800.000   42.000
15840.000   43.000
15880.000   41.000
15920.000   29.000
15960.000   50.000
